##NAMES=Calcite
##RRUFFID=R050128
##IDEAL CHEMISTRY=CaCO_3_
##LOCALITY=Tie Siding, Albany County, Wyoming, USA
##OWNER=RRUFF
##SOURCE=Dave Bunk Minerals
##DESCRIPTION=Pseudomorph after aragonite, not single crystal. Trace of aragonite still present.
##STATUS=The identification of this mineral has been confirmed by X-ray diffraction and chemical analysis
##URL=rruff.info/R050128
##MEASURED CHEMISTRY=Ca_1.00_CO_3_
##CELL PARAMETERS=a: 4.99013(8) b: 4.99013(8) c: 17.0690(3) alpha: 90. beta: 90. gamma: 120. volume: 368.09(1) crystal system: hexagonal
5.000, 0.000
5.010, 0.035
5.020, 5.773
5.030, 3.733
5.040, 7.791
5.050, 8.862
5.060, 5.150
5.070, 10.346
5.080, 9.528
5.090, 5.622
5.100, 4.731
5.110, 3.278
5.120, 8.213
5.130, 5.197
5.140, 5.170
5.150, 2.142
5.160, 8.108
5.170, 13.071
5.180, 9.031
5.190, 15.444
5.200, 7.379
5.210, 1.684
5.220, 8.255
5.230, 4.196
5.240, 13.139
5.250, 19.747
5.260, 7.669
5.270, 4.596
5.280, 5.526
5.290, 8.460
5.300, 2.397
5.310, 4.398
5.320, 10.340
5.330, 6.285
5.340, 12.232
5.350, 9.183
5.360, 8.135
5.370, 0.909
5.380, 8.048
5.390, 11.008
5.400, 3.970
5.410, 9.934
5.420, 8.899
5.430, 11.867
5.440, 8.836
5.450, 8.806
5.460, 7.778
5.470, 7.752
5.480, 1.727
5.490, 2.296
5.500, 2.681
5.510, 12.669
5.520, 7.650
5.530, 12.632
5.540, 17.615
5.550, 18.600
5.560, 5.590
5.570, 7.581
5.580, 12.573
5.590, 1.566
5.600, 4.560
5.610, 15.554
5.620, 0.451
5.630, 13.545
5.640, 5.542
5.650, 10.539
5.660, 5.536
5.670, 15.535
5.680, 3.536
5.690, 5.537
5.700, 7.539
5.710, 8.540
5.720, 3.542
5.730, 6.544
5.740, 10.549
5.750, 6.553
5.760, 14.558
5.770, 2.564
5.780, 8.569
5.790, 7.574
5.800, 2.580
5.810, 9.585
5.820, 10.592
5.830, 11.598
5.840, 2.606
5.850, 1.612
5.860, 6.619
5.870, 1.626
5.880, 7.633
5.890, 6.641
5.900, 9.649
5.910, 11.658
5.920, 0.667
5.930, 8.679
5.940, 10.691
5.950, 14.704
5.960, 18.716
5.970, 8.730
5.980, 12.743
5.990, 13.757
6.000, 2.774
6.010, 0.209
6.020, 7.809
6.030, 0.826
6.040, 11.844
6.050, 3.863
6.060, 13.881
6.070, 10.900
6.080, 9.919
6.090, 10.939
6.100, 3.052
6.110, 4.228
6.120, 9.246
6.130, 17.264
6.140, 12.282
6.150, 20.300
6.160, 13.319
6.170, 10.338
6.180, 12.357
6.190, 15.377
6.200, 14.413
6.210, 11.415
6.220, 6.437
6.230, 11.459
6.240, 14.481
6.250, 18.504
6.260, 12.526
6.270, 6.547
6.280, 13.568
6.290, 19.589
6.300, 14.610
6.310, 4.626
6.320, 5.643
6.330, 12.658
6.340, 13.826
6.350, 11.839
6.360, 19.855
6.370, 17.871
6.380, 5.888
6.390, 22.923
6.400, 3.939
6.410, 16.814
6.420, 14.906
6.430, 17.923
6.440, 11.941
6.450, 6.956
6.460, 13.104
6.470, 8.120
6.480, 17.142
6.490, 14.160
6.500, 12.178
6.510, 19.200
6.520, 16.219
6.530, 13.239
6.540, 18.260
6.550, 20.280
6.560, 10.301
6.570, 18.249
6.580, 14.270
6.590, 13.292
6.600, 19.315
6.610, 18.337
6.620, 11.360
6.630, 14.384
6.640, 9.410
6.650, 9.434
6.660, 13.487
6.670, 23.512
6.680, 3.536
6.690, 9.420
6.700, 15.445
6.710, 10.470
6.720, 15.496
6.730, 26.521
6.740, 12.547
6.750, 5.574
6.760, 10.600
6.770, 13.626
6.780, 16.653
6.790, 10.691
6.800, 21.729
6.810, 17.756
6.820, 8.767
6.830, 13.795
6.840, 14.829
6.850, 13.048
6.860, 8.076
6.870, 8.105
6.880, 6.133
6.890, 8.162
6.900, 17.191
6.910, 9.220
6.920, 5.249
6.930, 17.278
6.940, 2.307
6.950, 16.337
6.960, 11.366
6.970, 6.396
6.980, 16.471
6.990, 3.733
7.000, 3.763
7.010, 10.793
7.020, 12.823
7.030, 9.853
7.040, 4.883
7.050, 1.914
7.060, 10.944
7.070, 4.974
7.080, 4.005
7.090, 9.035
7.100, 1.066
7.110, 7.097
7.120, 4.128
7.130, 6.186
7.140, 12.217
7.150, 5.248
7.160, 7.279
7.170, 1.310
7.180, 8.341
7.190, 4.373
7.200, 1.596
7.210, 11.432
7.220, 2.537
7.230, 8.494
7.240, 9.524
7.250, 4.555
7.260, 11.586
7.270, 7.616
7.280, 11.647
7.290, 6.678
7.300, 7.708
7.310, 3.738
7.320, 9.768
7.330, 7.797
7.340, 6.827
7.350, 10.857
7.360, 4.886
7.370, 4.916
7.380, 3.946
7.390, 10.975
7.400, 4.005
7.410, 6.035
7.420, 4.065
7.430, 4.157
7.440, 7.187
7.450, 10.217
7.460, 3.247
7.470, 8.277
7.480, 4.427
7.490, 4.457
7.500, 0.487
7.510, 0.517
7.520, 1.547
7.530, 2.424
7.540, 11.605
7.550, 13.633
7.560, 5.662
7.570, 8.690
7.580, 0.281
7.590, 8.802
7.600, 8.830
7.610, 1.141
7.620, 7.887
7.630, 1.916
7.640, 4.944
7.650, 2.028
7.660, 3.999
7.670, 0.026
7.680, 2.171
7.690, 5.198
7.700, 0.225
7.710, 9.306
7.720, 8.449
7.730, 2.475
7.740, 8.502
7.750, 3.529
7.760, 14.555
7.770, 4.582
7.780, 7.609
7.790, 10.636
7.800, 2.663
7.810, 6.690
7.820, 3.717
7.830, 0.743
7.840, 8.770
7.850, 0.204
7.860, 12.823
7.870, 3.849
7.880, 6.875
7.890, 4.902
7.900, 4.931
7.910, 8.957
7.920, 6.984
7.930, 10.010
7.940, 2.037
7.950, 3.063
7.960, 10.089
7.970, 6.115
7.980, 0.141
7.990, 0.167
8.000, 8.193
8.010, 7.218
8.020, 3.244
8.030, 0.269
8.040, 2.706
8.050, 6.318
8.060, 5.446
8.070, 12.470
8.080, 7.493
8.090, 9.516
8.100, 4.540
8.110, 8.563
8.120, 8.586
8.130, 5.610
8.140, 2.634
8.150, 4.658
8.160, 3.681
8.170, 0.296
8.180, 3.274
8.190, 9.747
8.200, 3.767
8.210, 5.789
8.220, 11.809
8.230, 5.829
8.240, 4.849
8.250, 4.869
8.260, 4.889
8.270, 2.908
8.280, 5.928
8.290, 5.948
8.300, 3.968
8.310, 7.987
8.320, 0.006
8.330, 10.025
8.340, 2.044
8.350, 6.063
8.360, 7.081
8.370, 3.100
8.380, 6.214
8.390, 13.232
8.400, 11.163
8.410, 6.182
8.420, 6.085
8.430, 6.102
8.440, 2.120
8.450, 5.138
8.460, 14.155
8.470, 9.173
8.480, 5.190
8.490, 5.207
8.500, 6.224
8.510, 6.241
8.520, 3.258
8.530, 11.275
8.540, 8.292
8.550, 3.309
8.560, 2.325
8.570, 5.342
8.580, 8.382
8.590, 5.398
8.600, 10.414
8.610, 7.430
8.620, 0.554
8.630, 4.461
8.640, 5.476
8.650, 7.491
8.660, 5.506
8.670, 1.479
8.680, 5.535
8.690, 4.549
8.700, 10.560
8.710, 7.572
8.720, 5.585
8.730, 5.447
8.740, 13.460
8.750, 6.473
8.760, 2.486
8.770, 9.499
8.780, 0.507
8.790, 2.505
8.800, 4.517
8.810, 3.455
8.820, 12.466
8.830, 12.478
8.840, 1.490
8.850, 5.370
8.860, 10.382
8.870, 1.612
8.880, 8.398
8.890, 9.409
8.900, 0.585
8.910, 1.575
8.920, 6.433
8.930, 5.442
8.940, 3.450
8.950, 9.459
8.960, 6.467
8.970, 4.475
8.980, 1.483
8.990, 15.515
9.000, 2.523
9.010, 4.531
9.020, 1.539
9.030, 3.544
9.040, 2.551
9.050, 1.530
9.060, 9.537
9.070, 6.545
9.080, 3.552
9.090, 0.560
9.100, 9.568
9.110, 4.576
9.120, 7.584
9.130, 5.591
9.140, 11.599
9.150, 8.607
9.160, 2.615
9.170, 6.623
9.180, 10.619
9.190, 10.617
9.200, 2.624
9.210, 6.632
9.220, 1.640
9.230, 5.640
9.240, 8.457
9.250, 1.535
9.260, 4.471
9.270, 6.479
9.280, 10.486
9.290, 7.493
9.300, 5.500
9.310, 8.626
9.320, 2.633
9.330, 0.641
9.340, 3.648
9.350, 2.656
9.360, 6.663
9.370, 5.625
9.380, 8.400
9.390, 2.407
9.400, 0.414
9.410, 3.421
9.420, 4.428
9.430, 3.435
9.440, 10.442
9.450, 5.449
9.460, 5.456
9.470, 3.463
9.480, 10.469
9.490, 0.476
9.500, 3.483
9.510, 4.489
9.520, 2.468
9.530, 1.474
9.540, 5.481
9.550, 5.487
9.560, 6.493
9.570, 1.500
9.580, 6.505
9.590, 9.510
9.600, 0.516
9.610, 0.478
9.620, 4.528
9.630, 2.534
9.640, 4.540
9.650, 8.546
9.660, 7.551
9.670, 8.557
9.680, 5.563
9.690, 9.569
9.700, 9.575
9.710, 9.581
9.720, 4.587
9.730, 5.593
9.740, 6.599
9.750, 0.605
9.760, 8.611
9.770, 0.383
9.780, 1.622
9.790, 2.628
9.800, 9.634
9.810, 4.639
9.820, 7.582
9.830, 5.587
9.840, 2.593
9.850, 2.598
9.860, 13.604
9.870, 1.488
9.880, 4.493
9.890, 0.499
9.900, 0.504
9.910, 8.509
9.920, 3.539
9.930, 5.545
9.940, 7.551
9.950, 0.557
9.960, 3.563
9.970, 2.569
9.980, 0.520
9.990, 4.526
10.000, 11.532
10.010, 9.538
10.020, 7.545
10.030, 6.551
10.040, 3.557
10.050, 5.564
10.060, 0.571
10.070, 11.459
10.080, 2.466
10.090, 7.490
10.100, 3.443
10.110, 0.334
10.120, 0.341
10.130, 4.348
10.140, 4.354
10.150, 4.361
10.160, 5.368
10.170, 11.375
10.180, 0.618
10.190, 4.389
10.200, 3.396
10.210, 5.403
10.220, 2.410
10.230, 3.417
10.240, 4.424
10.250, 13.439
10.260, 9.446
10.270, 8.453
10.280, 11.655
10.290, 1.659
10.300, 7.666
10.310, 2.674
10.320, 11.681
10.330, 4.688
10.340, 1.695
10.350, 4.831
10.360, 7.838
10.370, 10.846
10.380, 2.853
10.390, 1.860
10.400, 2.868
10.410, 0.876
10.420, 5.884
10.430, 4.951
10.440, 13.960
10.450, 1.863
10.460, 9.056
10.470, 1.065
10.480, 7.073
10.490, 5.082
10.500, 1.908
10.510, 6.099
10.520, 5.231
10.530, 13.237
10.540, 8.244
10.550, 6.252
10.560, 2.259
10.570, 6.267
10.580, 4.277
10.590, 9.285
10.600, 11.293
10.610, 1.301
10.620, 6.310
10.630, 3.318
10.640, 10.328
10.650, 7.336
10.660, 8.345
10.670, 6.353
10.680, 6.362
10.690, 10.370
10.700, 3.378
10.710, 8.387
10.720, 8.395
10.730, 10.404
10.740, 9.412
10.750, 2.421
10.760, 9.429
10.770, 13.342
10.780, 4.351
10.790, 5.359
10.800, 7.367
10.810, 3.345
10.820, 5.353
10.830, 9.362
10.840, 1.371
10.850, 1.379
10.860, 12.388
10.870, 7.447
10.880, 5.456
10.890, 10.465
10.900, 2.474
10.910, 8.482
10.920, 5.539
10.930, 10.548
10.940, 10.557
10.950, 3.566
10.960, 9.575
10.970, 4.561
10.980, 3.570
10.990, 8.579
11.000, 6.588
11.010, 14.598
11.020, 1.607
11.030, 9.616
11.040, 5.626
11.050, 9.635
11.060, 13.645
11.070, 3.655
11.080, 3.665
11.090, 3.674
11.100, 7.684
11.110, 0.306
11.120, 9.704
11.130, 1.713
11.140, 8.723
11.150, 6.732
11.160, 4.742
11.170, 2.751
11.180, 3.761
11.190, 9.771
11.200, 9.781
11.210, 5.790
11.220, 1.800
11.230, 4.810
11.240, 2.819
11.250, 0.829
11.260, 2.838
11.270, 0.848
11.280, 0.141
11.290, 2.868
11.300, 3.878
11.310, 1.889
11.320, 4.900
11.330, 1.910
11.340, 5.921
11.350, 5.931
11.360, 3.941
11.370, 4.952
11.380, 7.975
11.390, 0.986
11.400, 3.996
11.410, 3.006
11.420, 9.017
11.430, 9.027
11.440, 0.037
11.450, 9.047
11.460, 3.058
11.470, 2.932
11.480, 2.076
11.490, 9.085
11.500, 7.093
11.510, 10.101
11.520, 1.110
11.530, 6.118
11.540, 1.874
11.550, 4.133
11.560, 7.141
11.570, 8.148
11.580, 1.200
11.590, 8.252
11.600, 7.259
11.610, 7.266
11.620, 0.727
11.630, 9.279
11.640, 5.286
11.650, 2.708
11.660, 9.297
11.670, 1.303
11.680, 7.308
11.690, 0.313
11.700, 3.199
11.710, 1.795
11.720, 6.209
11.730, 5.213
11.740, 3.218
11.750, 11.222
11.760, 5.226
11.770, 0.230
11.780, 4.234
11.790, 6.238
11.800, 6.242
11.810, 4.246
11.820, 1.250
11.830, 0.254
11.840, 7.258
11.850, 1.262
11.860, 6.266
11.870, 1.270
11.880, 7.273
11.890, 14.277
11.900, 6.281
11.910, 4.285
11.920, 10.288
11.930, 2.292
11.940, 4.295
11.950, 9.299
11.960, 6.302
11.970, 8.306
11.980, 3.310
11.990, 6.314
12.000, 4.318
12.010, 3.323
12.020, 9.327
12.030, 0.331
12.040, 7.335
12.050, 6.386
12.060, 0.610
12.070, 3.442
12.080, 11.445
12.090, 1.448
12.100, 7.452
12.110, 0.545
12.120, 12.458
12.130, 0.461
12.140, 4.575
12.150, 2.578
12.160, 1.581
12.170, 9.583
12.180, 3.586
12.190, 5.589
12.200, 1.592
12.210, 3.594
12.220, 1.597
12.230, 0.599
12.240, 2.602
12.250, 8.604
12.260, 6.607
12.270, 5.609
12.280, 1.612
12.290, 4.614
12.300, 5.616
12.310, 3.594
12.320, 7.596
12.330, 4.598
12.340, 0.600
12.350, 12.602
12.360, 5.604
12.370, 0.606
12.380, 4.608
12.390, 9.610
12.400, 6.612
12.410, 8.614
12.420, 1.616
12.430, 8.618
12.440, 6.620
12.450, 2.622
12.460, 4.624
12.470, 1.626
12.480, 8.612
12.490, 3.614
12.500, 4.616
12.510, 4.618
12.520, 5.620
12.530, 2.622
12.540, 11.624
12.550, 3.627
12.560, 1.629
12.570, 0.369
12.580, 3.633
12.590, 0.635
12.600, 6.638
12.610, 5.640
12.620, 3.642
12.630, 7.644
12.640, 6.638
12.650, 10.640
12.660, 2.642
12.670, 10.450
12.680, 3.452
12.690, 3.454
12.700, 4.456
12.710, 5.457
12.720, 3.459
12.730, 0.461
12.740, 8.334
12.750, 4.336
12.760, 6.338
12.770, 0.661
12.780, 0.659
12.790, 4.342
12.800, 6.343
12.810, 0.344
12.820, 5.285
12.830, 5.286
12.840, 3.287
12.850, 2.104
12.860, 4.105
12.870, 1.106
12.880, 8.107
12.890, 0.196
12.900, 5.198
12.910, 7.076
12.920, 3.077
12.930, 11.079
12.940, 6.081
12.950, 2.082
12.960, 5.084
12.970, 1.084
12.980, 7.086
12.990, 8.087
13.000, 6.089
13.010, 4.091
13.020, 3.092
13.030, 1.093
13.040, 11.095
13.050, 7.096
13.060, 2.098
13.070, 0.100
13.080, 1.101
13.090, 7.103
13.100, 6.105
13.110, 0.107
13.120, 5.109
13.130, 6.110
13.140, 2.112
13.150, 0.131
13.160, 2.133
13.170, 5.150
13.180, 0.152
13.190, 7.154
13.200, 10.156
13.210, 1.158
13.220, 8.160
13.230, 3.162
13.240, 0.836
13.250, 9.165
13.260, 0.883
13.270, 5.118
13.280, 1.119
13.290, 3.120
13.300, 5.122
13.310, 5.075
13.320, 8.077
13.330, 1.910
13.340, 2.090
13.350, 1.090
13.360, 7.091
13.370, 7.091
13.380, 4.092
13.390, 6.093
13.400, 11.093
13.410, 6.094
13.420, 4.094
13.430, 0.095
13.440, 6.096
13.450, 2.096
13.460, 5.097
13.470, 7.098
13.480, 0.099
13.490, 4.100
13.500, 0.101
13.510, 2.102
13.520, 3.103
13.530, 7.104
13.540, 5.105
13.550, 2.106
13.560, 6.107
13.570, 3.108
13.580, 5.110
13.590, 3.111
13.600, 7.112
13.610, 0.113
13.620, 8.176
13.630, 6.178
13.640, 3.180
13.650, 0.241
13.660, 4.243
13.670, 1.245
13.680, 4.248
13.690, 11.250
13.700, 9.308
13.710, 6.310
13.720, 4.313
13.730, 5.316
13.740, 6.319
13.750, 1.322
13.760, 3.436
13.770, 2.402
13.780, 8.405
13.790, 8.408
13.800, 1.411
13.810, 0.415
13.820, 4.418
13.830, 6.421
13.840, 2.425
13.850, 6.428
13.860, 5.432
13.870, 7.436
13.880, 2.440
13.890, 1.445
13.900, 4.450
13.910, 10.455
13.920, 7.460
13.930, 1.464
13.940, 5.470
13.950, 3.475
13.960, 2.481
13.970, 5.441
13.980, 3.437
13.990, 10.443
14.000, 7.449
14.010, 3.454
14.020, 0.460
14.030, 3.466
14.040, 9.472
14.050, 7.479
14.060, 3.486
14.070, 4.493
14.080, 1.501
14.090, 6.506
14.100, 3.512
14.110, 5.519
14.120, 0.525
14.130, 3.532
14.140, 6.539
14.150, 5.546
14.160, 5.552
14.170, 12.559
14.180, 0.566
14.190, 8.573
14.200, 4.581
14.210, 2.588
14.220, 2.595
14.230, 5.602
14.240, 3.610
14.250, 2.617
14.260, 5.624
14.270, 1.631
14.280, 7.639
14.290, 6.646
14.300, 4.654
14.310, 2.661
14.320, 6.669
14.330, 6.676
14.340, 0.316
14.350, 5.692
14.360, 0.280
14.370, 3.728
14.380, 2.735
14.390, 3.743
14.400, 6.750
14.410, 2.758
14.420, 3.765
14.430, 11.773
14.440, 0.733
14.450, 5.741
14.460, 12.700
14.470, 0.708
14.480, 0.716
14.490, 4.724
14.500, 3.731
14.510, 5.740
14.520, 0.252
14.530, 3.644
14.540, 3.652
14.550, 10.676
14.560, 5.684
14.570, 2.692
14.580, 0.701
14.590, 0.709
14.600, 4.717
14.610, 5.725
14.620, 5.733
14.630, 4.755
14.640, 2.764
14.650, 4.772
14.660, 0.780
14.670, 0.788
14.680, 5.797
14.690, 3.805
14.700, 5.813
14.710, 7.822
14.720, 7.830
14.730, 11.839
14.740, 2.847
14.750, 8.856
14.760, 2.864
14.770, 2.873
14.780, 3.881
14.790, 5.890
14.800, 4.898
14.810, 0.959
14.820, 4.049
14.830, 5.057
14.840, 0.935
14.850, 4.147
14.860, 9.155
14.870, 4.162
14.880, 7.170
14.890, 0.823
14.900, 3.185
14.910, 10.192
14.920, 3.336
14.930, 9.343
14.940, 4.350
14.950, 1.642
14.960, 5.364
14.970, 3.370
14.980, 9.377
14.990, 5.383
15.000, 5.403
15.010, 5.410
15.020, 4.416
15.030, 4.422
15.040, 5.429
15.050, 4.435
15.060, 5.441
15.070, 3.461
15.080, 5.542
15.090, 4.549
15.100, 2.555
15.110, 13.561
15.120, 4.580
15.130, 0.586
15.140, 3.604
15.150, 3.610
15.160, 5.617
15.170, 0.377
15.180, 7.629
15.190, 10.635
15.200, 2.642
15.210, 7.648
15.220, 1.654
15.230, 2.660
15.240, 7.666
15.250, 1.672
15.260, 2.690
15.270, 1.696
15.280, 7.613
15.290, 7.619
15.300, 4.625
15.310, 8.631
15.320, 5.637
15.330, 2.643
15.340, 1.649
15.350, 6.654
15.360, 0.660
15.370, 7.666
15.380, 7.745
15.390, 4.751
15.400, 10.757
15.410, 9.762
15.420, 1.768
15.430, 5.774
15.440, 4.779
15.450, 6.785
15.460, 6.790
15.470, 7.796
15.480, 1.801
15.490, 6.806
15.500, 1.812
15.510, 9.890
15.520, 3.895
15.530, 1.900
15.540, 1.889
15.550, 0.106
15.560, 4.883
15.570, 1.888
15.580, 3.893
15.590, 4.898
15.600, 6.903
15.610, 4.908
15.620, 7.913
15.630, 10.917
15.640, 3.922
15.650, 1.927
15.660, 1.932
15.670, 1.937
15.680, 11.942
15.690, 1.947
15.700, 1.952
15.710, 5.957
15.720, 4.950
15.730, 6.955
15.740, 0.039
15.750, 0.966
15.760, 4.972
15.770, 1.978
15.780, 3.985
15.790, 6.991
15.800, 1.997
15.810, 4.003
15.820, 0.009
15.830, 5.015
15.840, 3.020
15.850, 3.026
15.860, 6.032
15.870, 4.037
15.880, 3.043
15.890, 5.049
15.900, 4.054
15.910, 4.060
15.920, 6.065
15.930, 4.071
15.940, 4.076
15.950, 3.082
15.960, 4.087
15.970, 5.092
15.980, 2.098
15.990, 3.103
16.000, 1.892
16.010, 8.052
16.020, 7.056
16.030, 5.059
16.040, 0.996
16.050, 13.007
16.060, 5.019
16.070, 4.022
16.080, 4.033
16.090, 4.989
16.100, 5.992
16.110, 2.005
16.120, 2.997
16.130, 7.999
16.140, 6.000
16.150, 6.892
16.160, 6.893
16.170, 9.895
16.180, 0.897
16.190, 0.102
16.200, 4.900
16.210, 1.901
16.220, 1.903
16.230, 2.904
16.240, 1.906
16.250, 0.907
16.260, 0.092
16.270, 1.090
16.280, 9.910
16.290, 2.910
16.300, 7.911
16.310, 0.088
16.320, 9.912
16.330, 0.074
16.340, 5.927
16.350, 4.927
16.360, 3.927
16.370, 5.892
16.380, 3.893
16.390, 4.893
16.400, 8.894
16.410, 8.894
16.420, 13.895
16.430, 4.895
16.440, 4.896
16.450, 0.104
16.460, 1.896
16.470, 4.896
16.480, 9.897
16.490, 4.898
16.500, 0.898
16.510, 10.899
16.520, 7.900
16.530, 6.901
16.540, 0.901
16.550, 3.902
16.560, 5.903
16.570, 1.097
16.580, 11.903
16.590, 4.903
16.600, 1.903
16.610, 1.903
16.620, 3.903
16.630, 7.903
16.640, 5.903
16.650, 5.903
16.660, 3.903
16.670, 3.902
16.680, 2.903
16.690, 7.903
16.700, 1.097
16.710, 0.902
16.720, 8.901
16.730, 6.901
16.740, 12.900
16.750, 7.878
16.760, 4.888
16.770, 4.887
16.780, 3.887
16.790, 4.886
16.800, 8.885
16.810, 5.885
16.820, 8.884
16.830, 3.884
16.840, 0.883
16.850, 2.883
16.860, 5.882
16.870, 4.882
16.880, 0.881
16.890, 0.881
16.900, 3.880
16.910, 1.880
16.920, 0.879
16.930, 5.879
16.940, 3.931
16.950, 1.125
16.960, 4.130
16.970, 4.130
16.980, 6.129
16.990, 8.129
17.000, 6.128
17.010, 5.127
17.020, 8.113
17.030, 1.113
17.040, 6.113
17.050, 3.113
17.060, 3.112
17.070, 8.112
17.080, 5.112
17.090, 1.112
17.100, 2.113
17.110, 3.113
17.120, 8.112
17.130, 1.112
17.140, 11.111
17.150, 1.111
17.160, 5.110
17.170, 1.110
17.180, 3.109
17.190, 3.109
17.200, 2.974
17.210, 2.974
17.220, 0.974
17.230, 2.973
17.240, 2.899
17.250, 0.101
17.260, 2.898
17.270, 0.102
17.280, 0.102
17.290, 6.898
17.300, 1.898
17.310, 1.761
17.320, 2.761
17.330, 3.760
17.340, 4.762
17.350, 6.762
17.360, 2.762
17.370, 4.763
17.380, 4.763
17.390, 8.750
17.400, 0.750
17.410, 4.751
17.420, 0.752
17.430, 2.753
17.440, 4.753
17.450, 1.754
17.460, 7.742
17.470, 10.668
17.480, 1.670
17.490, 2.726
17.500, 5.727
17.510, 3.716
17.520, 0.283
17.530, 0.707
17.540, 1.708
17.550, 2.709
17.560, 4.765
17.570, 4.766
17.580, 10.767
17.590, 3.769
17.600, 7.770
17.610, 7.772
17.620, 2.773
17.630, 3.775
17.640, 4.776
17.650, 3.765
17.660, 0.767
17.670, 3.768
17.680, 4.823
17.690, 2.825
17.700, 0.826
17.710, 3.828
17.720, 0.829
17.730, 0.831
17.740, 1.832
17.750, 2.834
17.760, 6.835
17.770, 5.763
17.780, 3.765
17.790, 2.766
17.800, 3.768
17.810, 2.770
17.820, 1.772
17.830, 4.774
17.840, 6.776
17.850, 2.778
17.860, 4.780
17.870, 6.831
17.880, 0.833
17.890, 3.835
17.900, 3.764
17.910, 0.766
17.920, 2.768
17.930, 2.770
17.940, 3.773
17.950, 0.225
17.960, 10.777
17.970, 7.779
17.980, 2.781
17.990, 2.784
18.000, 4.786
18.010, 5.788
18.020, 4.790
18.030, 2.792
18.040, 4.842
18.050, 2.844
18.060, 2.846
18.070, 4.848
18.080, 3.851
18.090, 4.853
18.100, 2.855
18.110, 1.858
18.120, 4.860
18.130, 1.138
18.140, 3.136
18.150, 0.136
18.160, 5.864
18.170, 4.864
18.180, 8.864
18.190, 3.865
18.200, 4.865
18.210, 7.981
18.220, 2.981
18.230, 4.982
18.240, 3.982
18.250, 5.983
18.260, 3.983
18.270, 8.984
18.280, 0.984
18.290, 0.016
18.300, 1.985
18.310, 6.985
18.320, 7.986
18.330, 7.986
18.340, 0.987
18.350, 5.987
18.360, 2.988
18.370, 5.988
18.380, 3.989
18.390, 8.989
18.400, 4.990
18.410, 3.991
18.420, 0.992
18.430, 5.993
18.440, 4.995
18.450, 2.988
18.460, 1.990
18.470, 4.983
18.480, 5.977
18.490, 3.979
18.500, 2.980
18.510, 3.982
18.520, 7.984
18.530, 0.014
18.540, 6.988
18.550, 3.990
18.560, 1.992
18.570, 1.046
18.580, 4.048
18.590, 5.050
18.600, 2.052
18.610, 10.106
18.620, 3.108
18.630, 2.110
18.640, 9.112
18.650, 6.228
18.660, 8.230
18.670, 3.233
18.680, 0.765
18.690, 3.237
18.700, 2.239
18.710, 5.241
18.720, 6.230
18.730, 1.232
18.740, 3.234
18.750, 0.763
18.760, 1.238
18.770, 9.240
18.780, 3.242
18.790, 2.244
18.800, 7.246
18.810, 1.248
18.820, 7.249
18.830, 5.251
18.840, 4.253
18.850, 5.255
18.860, 3.257
18.870, 0.742
18.880, 3.260
18.890, 4.261
18.900, 2.262
18.910, 6.264
18.920, 5.265
18.930, 8.266
18.940, 2.267
18.950, 2.269
18.960, 4.270
18.970, 4.272
18.980, 4.274
18.990, 2.392
19.000, 6.394
19.010, 4.396
19.020, 3.397
19.030, 2.399
19.040, 2.401
19.050, 2.402
19.060, 0.596
19.070, 1.405
19.080, 5.407
19.090, 2.408
19.100, 2.410
